ReRa Photor QE measurement
Wavelength [nm]	QE[-]
350	0.247537697078461
360	0.28731799508953
370	0.323070143473594
380	0.3924400506869
390	0.456728817196931
400	0.529268834214466
410	0.560985047909946
420	0.590892415251658
430	0.609457006539832
440	0.606672332189798
450	0.613502745094078
460	0.620791875678582
470	0.630559141812631
480	0.641791078808772
490	0.651120756355351
500	0.663599106598508
510	0.66844659152573
520	0.671697812097738
530	0.673143109374051
540	0.671571433037041
550	0.673701059785718
560	0.675037670860909
570	0.674152533139345
580	0.676825753315699
590	0.677647277512991
600	0.678330023834914
610	0.679723067278849
620	0.680396226010201
630	0.681060438062723
640	0.681441574113668
650	0.682938760719621
660	0.681181606339193
670	0.680358136999026
680	0.681699858496197
690	0.68303918378982
700	0.682366001236976
710	0.680523399751341
720	0.681797761583399
730	0.682090945684958
740	0.681284608744155
750	0.680252424401411
760	0.680160092955053
770	0.679030030226814
780	0.678015942899316
790	0.676391605394201
800	0.674767267889087
810	0.672266750203291
820	0.669454222603906
830	0.663929805892591
840	0.657149458853152
850	0.65057600016939
860	0.627881307109931
870	0.461596454183571
880	0.195813666927289
890	0.0338351554554903
900	0.00649991355883558
910	0.00166786055294691
920	0.000823782988439867
