ReRa Photor QE measurement
Wavelength [nm]	QE[-]
350	0.199483547912518
360	0.2154737664563
370	0.237021954587035
380	0.28520851688868
390	0.338114914779966
400	0.391674788683347
410	0.435961525249302
420	0.485265551927961
430	0.541259109170749
440	0.583114406040768
450	0.600978932592218
460	0.618492594176769
470	0.636937396064609
480	0.655439235061433
490	0.675890567126101
500	0.693904796178827
510	0.707070118143188
520	0.712821239100372
530	0.718679163115236
540	0.721013249288477
550	0.721041813881382
560	0.722790982128959
570	0.72283965782209
580	0.722706888247027
590	0.723899111320862
600	0.725088542855387
610	0.726108400545844
620	0.727494994123535
630	0.728445988028055
640	0.729059478729668
650	0.729033599508719
660	0.72759309092772
670	0.726688713892896
680	0.72880309835237
690	0.725261093290503
700	0.726446854626633
710	0.723375660047228
720	0.726893277546582
730	0.725404172446436
740	0.715943158599389
750	0.731008983561468
760	0.718138902301239
770	0.710617124782485
780	0.737365067135968
790	0.716338622532868
800	0.695312177929767
810	0.715574219974117
820	0.706345650455972
830	0.668020906086999
840	0.683213044132808
850	0.733168884122343
860	0.674536115663689
870	0.396418339168961
880	0.117591094787499
890	0.0210889982495477
900	0.00550631038125352
910	0.000672746062976639
920	0.000459229941728928
