ReRa Photor QE measurement
Wavelength [nm]	QE[-]
350	0.214770433450936
360	0.236215999560086
370	0.259520766048709
380	0.311354673929981
390	0.366186254970337
400	0.422007810764253
410	0.47027353696911
420	0.509861795276818
430	0.559423160020425
440	0.601488699257632
450	0.618445681298381
460	0.640637219385837
470	0.660011151852436
480	0.679389442289778
490	0.695916654339352
500	0.713944604750508
510	0.720866341975602
520	0.727239615079099
530	0.730352352693466
540	0.731137608229779
550	0.730976407370151
560	0.732968033942238
570	0.732810579311347
580	0.732651500315706
590	0.733358349388391
600	0.733857465366703
610	0.732963748306071
620	0.733506908730855
630	0.733863126238162
640	0.73362071713419
650	0.732310334799577
660	0.731099348570135
670	0.72961813247674
680	0.729724951184916
690	0.727785791255712
700	0.726071295761163
710	0.724888854234384
720	0.719536305470299
730	0.727163235797165
740	0.713757948314402
750	0.72010411180727
760	0.728898108283539
770	0.702290985276244
780	0.719043731445243
790	0.734992518429094
800	0.750941305412945
810	0.761834756064068
820	0.781504726673006
830	0.746196801288558
840	0.709763006295595
850	0.755697208045983
860	0.772315768554494
870	0.484293797348095
880	0.127093865435573
890	0.0103623980011951
900	0.00316730356473301
910	0.000814133440324961
920	0.000464429129428296
