ReRa Photor QE measurement
Wavelength [nm],QE[-]
350,0.24323304846938
360,0.282202125096098
370,0.347225781844665
380,0.439653978618581
390,0.519068205648525
400,0.582767640019075
410,0.639858194979362
420,0.702574307039134
430,0.75605477936737
440,0.784713060058257
450,0.819806200357463
460,0.844993247247044
470,0.868627553776703
480,0.884723756516726
490,0.898947340214614
500,0.91118721666398
510,0.916081946309155
520,0.919005505998044
530,0.91924619967455
540,0.921705539329712
550,0.924592598560488
560,0.923866163026138
570,0.926529034126924
580,0.929365869404761
590,0.928768426725004
600,0.932699746670097
610,0.9342119749602
620,0.936856652494809
630,0.941124608124847
640,0.943558835472536
650,0.946769094929407
660,0.950363577561318
670,0.950318611389632
680,0.953942682601747
690,0.955478245076618
700,0.956874336253253
710,0.958200399620778
720,0.958960975919497
730,0.959497107440409
740,0.960019972428655
750,0.961428161733868
760,0.961170342751351
770,0.95881731423069
780,0.957332925523261
790,0.957180106524456
800,0.957027287525651
810,0.95332164654752
820,0.949088475268905
830,0.940185770730706
840,0.929957903653947
850,0.918121043123539
860,0.883342028270104
870,0.658426485325597
880,0.285850992345519
890,0.0518108472287041
900,0.0103453396601229
910,0.00277456293197606
920,0.00141997349806355
