ReRa Photor QE measurement
Wavelength [nm],QE[-]
350,0.258106839058388
360,0.302332133603509
370,0.358947169892
380,0.451144049304699
390,0.536337784225287
400,0.602683527408471
410,0.658063788876402
420,0.735744738924933
430,0.773785188743439
440,0.80889733721434
450,0.841843177375264
460,0.866890177865881
470,0.893405144759387
480,0.905123450218003
490,0.917886343720102
500,0.931652551545126
510,0.937124064576564
520,0.940954744395157
530,0.939715254025836
540,0.942676946832879
550,0.945891834855116
560,0.945516091741333
570,0.949834987779983
580,0.9517395608693
590,0.952451972470504
600,0.956400078479946
610,0.957304341448447
620,0.961718741794831
630,0.966018491945747
640,0.9683784843238
650,0.972276712782442
660,0.976253923322714
670,0.9760117900223
680,0.979180724327035
690,0.980976335591811
700,0.983160556256703
710,0.983540287121678
720,0.984580958787258
730,0.98485949783284
740,0.985583206059509
750,0.987035832454655
760,0.986368969573983
770,0.983931601853171
780,0.981592942700822
790,0.981418147813438
800,0.981243352926055
810,0.976887001475829
820,0.971676125904889
830,0.962214956877522
840,0.951949187983331
850,0.938908809015269
860,0.901990433001682
870,0.676740428730018
880,0.299106705310731
890,0.054897515861211
900,0.0107829292265106
910,0.00293159813358545
920,0.00142729457662214
